#GR700XD order  3:                1.30000  7.782045e-05  1.941719e+04  2.680489e-15  1.511054e-03
#                              Wavelength    Response
                                  0.63515  2.581366e+05
                                  0.63545  1.978053e+05
                                  0.63576  1.989655e+05
                                  0.63606  2.001025e+05
                                  0.63636  2.012006e+05
                                  0.63666  2.023082e+05
                                  0.63697  2.034207e+05
                                  0.63727  2.045455e+05
                                  0.63757  2.056679e+05
                                  0.63787  2.068040e+05
                                  0.63818  2.079818e+05
                                  0.63848  2.091717e+05
                                  0.63878  2.104305e+05
                                  0.63908  2.117077e+05
                                  0.63938  2.131270e+05
                                  0.63969  2.145921e+05
                                  0.63999  2.160770e+05
                                  0.64029  2.175832e+05
                                  0.64059  2.191139e+05
                                  0.64090  2.206696e+05
                                  0.64120  2.222360e+05
                                  0.64150  2.238116e+05
                                  0.64180  2.254083e+05
                                  0.64211  2.270232e+05
                                  0.64241  2.286614e+05
                                  0.64271  2.303208e+05
                                  0.64301  2.320022e+05
                                  0.64332  2.336806e+05
                                  0.64362  2.353856e+05
                                  0.64392  2.370882e+05
                                  0.64422  2.388158e+05
                                  0.64453  2.405290e+05
                                  0.64483  2.422605e+05
                                  0.64513  2.439859e+05
                                  0.64543  2.457257e+05
                                  0.64573  2.475036e+05
                                  0.64604  2.493151e+05
                                  0.64634  2.511686e+05
                                  0.64664  2.530699e+05
                                  0.64694  2.549890e+05
                                  0.64725  2.569126e+05
                                  0.64755  2.588655e+05
                                  0.64785  2.608419e+05
                                  0.64815  2.628520e+05
                                  0.64846  2.648637e+05
                                  0.64876  2.669103e+05
                                  0.64906  2.690101e+05
                                  0.64936  2.711523e+05
                                  0.64967  2.733326e+05
                                  0.64997  2.755525e+05
                                  0.65027  2.777628e+05
                                  0.65057  2.799667e+05
                                  0.65088  2.821923e+05
                                  0.65118  2.844285e+05
                                  0.65148  2.867043e+05
                                  0.65178  2.890022e+05
                                  0.65208  2.913537e+05
                                  0.65239  2.937624e+05
                                  0.65269  2.962346e+05
                                  0.65299  2.986268e+05
                                  0.65329  3.010763e+05
                                  0.65360  3.034751e+05
                                  0.65390  3.059242e+05
                                  0.65420  3.083376e+05
                                  0.65450  3.107775e+05
                                  0.65481  3.132571e+05
                                  0.65511  3.157644e+05
                                  0.65541  3.184276e+05
                                  0.65571  3.209657e+05
                                  0.65602  3.238824e+05
                                  0.65632  3.263538e+05
                                  0.65662  3.289622e+05
                                  0.65692  3.317895e+05
                                  0.65723  3.343729e+05
                                  0.65753  3.371891e+05
                                  0.65783  3.399508e+05
                                  0.65813  3.426931e+05
                                  0.65843  3.454917e+05
                                  0.65874  3.482298e+05
                                  0.65904  3.510140e+05
                                  0.65934  3.537537e+05
                                  0.65964  3.564718e+05
                                  0.65995  3.591830e+05
                                  0.66025  3.622921e+05
                                  0.66055  3.654379e+05
                                  0.66085  3.688261e+05
                                  0.66116  3.723194e+05
                                  0.66146  3.760404e+05
                                  0.66176  3.799525e+05
                                  0.66206  3.838840e+05
                                  0.66237  3.878123e+05
                                  0.66267  3.918212e+05
                                  0.66297  3.959395e+05
                                  0.66327  4.001392e+05
                                  0.66358  4.044800e+05
                                  0.66388  4.089127e+05
                                  0.66418  4.131362e+05
                                  0.66448  4.173697e+05
                                  0.66478  4.216854e+05
                                  0.66509  4.260882e+05
                                  0.66539  4.305983e+05
                                  0.66569  4.352286e+05
                                  0.66599  4.398718e+05
                                  0.66630  4.442333e+05
                                  0.66660  4.486835e+05
                                  0.66690  4.532139e+05
                                  0.66720  4.578378e+05
                                  0.66751  4.625959e+05
                                  0.66781  4.674680e+05
                                  0.66811  4.723084e+05
                                  0.66841  4.771417e+05
                                  0.66872  4.820292e+05
                                  0.66902  4.869291e+05
                                  0.66932  4.919085e+05
                                  0.66962  4.968390e+05
                                  0.66993  5.018710e+05
                                  0.67023  5.067410e+05
                                  0.67053  5.116834e+05
                                  0.67083  5.167335e+05
                                  0.67113  5.218907e+05
                                  0.67144  5.271725e+05
                                  0.67174  5.325872e+05
                                  0.67204  5.379302e+05
                                  0.67234  5.427817e+05
                                  0.67265  5.477283e+05
                                  0.67295  5.527676e+05
                                  0.67325  5.579004e+05
                                  0.67355  5.631680e+05
                                  0.67386  5.685484e+05
                                  0.67416  5.737811e+05
                                  0.67446  5.789045e+05
                                  0.67476  5.841364e+05
                                  0.67507  5.894963e+05
                                  0.67537  5.949638e+05
                                  0.67567  6.005681e+05
                                  0.67597  6.062809e+05
                                  0.67628  6.116828e+05
                                  0.67658  6.171044e+05
                                  0.67688  6.224484e+05
                                  0.67718  6.277688e+05
                                  0.67748  6.330803e+05
                                  0.67779  6.382945e+05
                                  0.67809  6.435365e+05
                                  0.67839  6.483608e+05
                                  0.67869  6.532612e+05
                                  0.67900  6.582939e+05
                                  0.67930  6.634171e+05
                                  0.67960  6.686715e+05
                                  0.67990  6.740424e+05
                                  0.68021  6.795646e+05
                                  0.68051  6.852941e+05
                                  0.68081  6.910732e+05
                                  0.68111  6.965068e+05
                                  0.68142  7.020304e+05
                                  0.68172  7.075988e+05
                                  0.68202  7.132534e+05
                                  0.68232  7.194285e+05
                                  0.68263  7.260174e+05
                                  0.68293  7.327427e+05
                                  0.68323  7.396191e+05
                                  0.68353  7.466172e+05
                                  0.68383  7.535418e+05
                                  0.68414  7.605991e+05
                                  0.68444  7.672896e+05
                                  0.68474  7.739741e+05
                                  0.68504  7.808033e+05
                                  0.68535  7.877793e+05
                                  0.68565  7.947972e+05
                                  0.68595  8.016855e+05
                                  0.68625  8.086998e+05
                                  0.68656  8.152172e+05
                                  0.68686  8.218341e+05
                                  0.68716  8.285948e+05
                                  0.68746  8.354863e+05
                                  0.68777  8.420519e+05
                                  0.68807  8.481329e+05
                                  0.68837  8.541212e+05
                                  0.68867  8.591598e+05
                                  0.68898  8.642601e+05
                                  0.68928  8.694170e+05
                                  0.68958  8.746385e+05
                                  0.68988  8.799982e+05
                                  0.69018  8.854788e+05
                                  0.69049  8.910108e+05
                                  0.69079  8.965664e+05
                                  0.69109  9.021827e+05
                                  0.69139  9.067291e+05
                                  0.69170  9.113232e+05
                                  0.69200  9.159622e+05
                                  0.69230  9.206503e+05
                                  0.69260  9.251044e+05
                                  0.69291  9.292161e+05
                                  0.69321  9.330871e+05
                                  0.69351  9.351270e+05
                                  0.69381  9.371761e+05
                                  0.69412  9.402420e+05
                                  0.69442  9.435328e+05
                                  0.69472  9.467228e+05
                                  0.69502  9.498254e+05
                                  0.69533  9.527337e+05
                                  0.69563  9.549311e+05
                                  0.69593  9.571392e+05
                                  0.69623  9.580768e+05
                                  0.69653  9.589111e+05
                                  0.69684  9.596823e+05
                                  0.69714  9.604143e+05
                                  0.69744  9.611139e+05
                                  0.69774  9.617404e+05
                                  0.69805  9.623666e+05
                                  0.69835  9.615738e+05
                                  0.69865  9.607737e+05
                                  0.69895  9.599773e+05
                                  0.69926  9.591811e+05
                                  0.69956  9.583905e+05
                                  0.69986  9.576112e+05
                                  0.70016  9.568320e+05
                                  0.70047  9.561029e+05
                                  0.70077  9.553727e+05
                                  0.70107  9.537560e+05
                                  0.70137  9.518080e+05
                                  0.70168  9.497406e+05
                                  0.70198  9.474921e+05
                                  0.70228  9.452513e+05
                                  0.70258  9.430403e+05
                                  0.70288  9.408362e+05
                                  0.70319  9.386373e+05
                                  0.70349  9.364447e+05
                                  0.70379  9.345953e+05
                                  0.70409  9.332203e+05
                                  0.70440  9.318940e+05
                                  0.70470  9.310866e+05
                                  0.70500  9.302784e+05
                                  0.70530  9.284996e+05
                                  0.70561  9.264004e+05
                                  0.70591  9.243095e+05
                                  0.70621  9.222268e+05
                                  0.70651  9.201206e+05
                                  0.70682  9.176498e+05
                                  0.70712  9.151886e+05
                                  0.70742  9.120000e+05
                                  0.70772  9.085567e+05
                                  0.70803  9.051457e+05
                                  0.70833  9.017734e+05
                                  0.70863  8.984219e+05
                                  0.70893  8.950946e+05
                                  0.70923  8.917875e+05
                                  0.70954  8.884511e+05
                                  0.70984  8.851114e+05
                                  0.71014  8.813915e+05
                                  0.71044  8.769081e+05
                                  0.71075  8.724536e+05
                                  0.71105  8.672393e+05
                                  0.71135  8.620513e+05
                                  0.71165  8.568466e+05
                                  0.71196  8.516676e+05
                                  0.71226  8.468028e+05
                                  0.71256  8.426787e+05
                                  0.71286  8.385997e+05
                                  0.71317  8.326723e+05
                                  0.71347  8.266328e+05
                                  0.71377  8.207825e+05
                                  0.71407  8.150951e+05
                                  0.71438  8.095861e+05
                                  0.71468  8.046369e+05
                                  0.71498  7.997419e+05
                                  0.71528  7.940551e+05
                                  0.71558  7.882418e+05
                                  0.71589  7.825105e+05
                                  0.71619  7.768633e+05
                                  0.71649  7.712911e+05
                                  0.71679  7.658010e+05
                                  0.71710  7.603848e+05
                                  0.71740  7.550468e+05
                                  0.71770  7.497801e+05
                                  0.71800  7.443261e+05
                                  0.71831  7.383915e+05
                                  0.71861  7.325440e+05
                                  0.71891  7.266761e+05
                                  0.71921  7.208870e+05
                                  0.71952  7.151847e+05
                                  0.71982  7.095667e+05
                                  0.72012  7.040377e+05
                                  0.72042  6.986277e+05
                                  0.72073  6.932938e+05
                                  0.72103  6.875836e+05
                                  0.72133  6.818323e+05
                                  0.72163  6.760855e+05
                                  0.72193  6.702966e+05
                                  0.72224  6.645992e+05
                                  0.72254  6.590048e+05
                                  0.72284  6.534972e+05
                                  0.72314  6.485055e+05
                                  0.72345  6.438683e+05
                                  0.72375  6.391359e+05
                                  0.72405  6.338602e+05
                                  0.72435  6.286645e+05
                                  0.72466  6.232963e+05
                                  0.72496  6.179525e+05
                                  0.72526  6.131383e+05
                                  0.72556  6.090455e+05
                                  0.72587  6.050018e+05
                                  0.72617  6.004816e+05
                                  0.72647  5.960242e+05
                                  0.72677  5.917294e+05
                                  0.72708  5.875593e+05
                                  0.72738  5.834916e+05
                                  0.72768  5.796923e+05
                                  0.72798  5.759371e+05
                                  0.72828  5.714125e+05
                                  0.72859  5.667163e+05
                                  0.72889  5.622412e+05
                                  0.72919  5.580968e+05
                                  0.72949  5.540077e+05
                                  0.72980  5.499713e+05
                                  0.73010  5.459898e+05
                                  0.73040  5.418851e+05
                                  0.73070  5.376760e+05
                                  0.73101  5.335764e+05
                                  0.73131  5.299866e+05
                                  0.73161  5.264418e+05
                                  0.73191  5.227573e+05
                                  0.73222  5.190351e+05
                                  0.73252  5.152892e+05
                                  0.73282  5.113800e+05
                                  0.73312  5.075264e+05
                                  0.73343  5.034632e+05
                                  0.73373  4.994059e+05
                                  0.73403  4.955685e+05
                                  0.73433  4.920256e+05
                                  0.73463  4.885281e+05
                                  0.73494  4.849260e+05
                                  0.73524  4.813657e+05
                                  0.73554  4.777555e+05
                                  0.73584  4.741092e+05
                                  0.73615  4.705166e+05
                                  0.73645  4.669901e+05
                                  0.73675  4.635113e+05
                                  0.73705  4.600845e+05
                                  0.73736  4.567076e+05
                                  0.73766  4.533795e+05
                                  0.73796  4.501057e+05
                                  0.73826  4.468744e+05
                                  0.73857  4.436978e+05
                                  0.73887  4.405658e+05
                                  0.73917  4.374796e+05
                                  0.73947  4.344472e+05
                                  0.73978  4.314538e+05
                                  0.74008  4.283092e+05
                                  0.74038  4.251753e+05
                                  0.74068  4.221099e+05
                                  0.74098  4.191232e+05
                                  0.74129  4.161743e+05
                                  0.74159  4.134277e+05
                                  0.74189  4.107200e+05
