# The y pixel values are for SUBSTRIP256 read-out.  Subtract 10 to get
# the SUBSTRIP96 y pixel values.
# The x and y indexes are 0-based as in Python.
# Order 1 x, y, wavelength (microns) Order 2 x, y, wavelength (microns)
   4.000   82.832  2.83052    4.000   99.532      1.40909
   5.000   82.774  2.82950    5.000   99.495      1.40862
   6.000   82.715  2.82849    6.000   99.459      1.40815
   7.000   82.656  2.82748    7.000   99.423      1.40769
   8.000   82.598  2.82646    8.000   99.387      1.40722
   9.000   82.540  2.82545    9.000   99.351      1.40675
  10.000   82.482  2.82443   10.000   99.315      1.40629
  11.000   82.423  2.82341   11.000   99.279      1.40582
  12.000   82.365  2.82240   12.000   99.243      1.40535
  13.000   82.308  2.82139   13.000   99.206      1.40489
  14.000   82.250  2.82037   14.000   99.170      1.40442
  15.000   82.192  2.81936   15.000   99.134      1.40395
  16.000   82.134  2.81835   16.000   99.098      1.40349
  17.000   82.077  2.81734   17.000   99.063      1.40302
  18.000   82.020  2.81632   18.000   99.027      1.40255
  19.000   81.962  2.81531   19.000   98.991      1.40209
  20.000   81.905  2.81430   20.000   98.955      1.40162
  21.000   81.848  2.81329   21.000   98.919      1.40115
  22.000   81.791  2.81227   22.000   98.883      1.40069
  23.000   81.734  2.81126   23.000   98.847      1.40022
  24.000   81.677  2.81025   24.000   98.812      1.39975
  25.000   81.620  2.80924   25.000   98.776      1.39929
  26.000   81.564  2.80822   26.000   98.740      1.39882
  27.000   81.507  2.80721   27.000   98.704      1.39835
  28.000   81.451  2.80619   28.000   98.669      1.39789
  29.000   81.394  2.80517   29.000   98.633      1.39742
  30.000   81.338  2.80416   30.000   98.597      1.39695
  31.000   81.282  2.80315   31.000   98.562      1.39649
  32.000   81.226  2.80214   32.000   98.526      1.39602
  33.000   81.170  2.80113   33.000   98.491      1.39555
  34.000   81.114  2.80011   34.000   98.455      1.39508
  35.000   81.058  2.79910   35.000   98.420      1.39461
  36.000   81.002  2.79809   36.000   98.384      1.39415
  37.000   80.947  2.79708   37.000   98.349      1.39368
  38.000   80.891  2.79607   38.000   98.313      1.39321
  39.000   80.836  2.79505   39.000   98.278      1.39275
  40.000   80.781  2.79404   40.000   98.242      1.39228
  41.000   80.725  2.79303   41.000   98.207      1.39181
  42.000   80.670  2.79202   42.000   98.172      1.39135
  43.000   80.615  2.79101   43.000   98.136      1.39088
  44.000   80.560  2.78999   44.000   98.101      1.39042
  45.000   80.505  2.78898   45.000   98.066      1.38995
  46.000   80.450  2.78796   46.000   98.031      1.38948
  47.000   80.396  2.78695   47.000   97.996      1.38902
  48.000   80.341  2.78594   48.000   97.960      1.38855
  49.000   80.287  2.78493   49.000   97.925      1.38808
  50.000   80.232  2.78391   50.000   97.890      1.38762
  51.000   80.178  2.78290   51.000   97.855      1.38715
  52.000   80.124  2.78189   52.000   97.820      1.38668
  53.000   80.069  2.78088   53.000   97.785      1.38622
  54.000   80.015  2.77987   54.000   97.750      1.38575
  55.000   79.961  2.77886   55.000   97.715      1.38528
  56.000   79.907  2.77785   56.000   97.680      1.38482
  57.000   79.854  2.77683   57.000   97.645      1.38435
  58.000   79.800  2.77582   58.000   97.610      1.38388
  59.000   79.746  2.77481   59.000   97.576      1.38342
  60.000   79.693  2.77380   60.000   97.541      1.38295
  61.000   79.639  2.77279   61.000   97.506      1.38248
  62.000   79.586  2.77178   62.000   97.471      1.38201
  63.000   79.532  2.77077   63.000   97.436      1.38154
  64.000   79.479  2.76974   64.000   97.402      1.38108
  65.000   79.426  2.76873   65.000   97.367      1.38061
  66.000   79.373  2.76772   66.000   97.332      1.38014
  67.000   79.320  2.76671   67.000   97.298      1.37968
  68.000   79.267  2.76570   68.000   97.263      1.37921
  69.000   79.214  2.76469   69.000   97.229      1.37874
  70.000   79.162  2.76368   70.000   97.194      1.37828
  71.000   79.109  2.76267   71.000   97.160      1.37781
  72.000   79.056  2.76166   72.000   97.125      1.37734
  73.000   79.004  2.76065   73.000   97.091      1.37688
  74.000   78.952  2.75964   74.000   97.056      1.37641
  75.000   78.899  2.75863   75.000   97.022      1.37595
  76.000   78.847  2.75762   76.000   96.988      1.37548
  77.000   78.795  2.75661   77.000   96.953      1.37501
  78.000   78.743  2.75559   78.000   96.919      1.37455
  79.000   78.691  2.75458   79.000   96.885      1.37408
  80.000   78.639  2.75357   80.000   96.851      1.37361
  81.000   78.587  2.75256   81.000   96.817      1.37315
  82.000   78.535  2.75155   82.000   96.782      1.37268
  83.000   78.484  2.75053   83.000   96.748      1.37221
  84.000   78.432  2.74952   84.000   96.714      1.37175
  85.000   78.381  2.74851   85.000   96.680      1.37128
  86.000   78.329  2.74750   86.000   96.646      1.37081
  87.000   78.278  2.74649   87.000   96.612      1.37035
  88.000   78.227  2.74548   88.000   96.578      1.36988
  89.000   78.175  2.74447   89.000   96.544      1.36941
  90.000   78.124  2.74346   90.000   96.511      1.36895
  91.000   78.073  2.74245   91.000   96.477      1.36847
  92.000   78.022  2.74144   92.000   96.443      1.36801
  93.000   77.971  2.74043   93.000   96.409      1.36754
  94.000   77.921  2.73942   94.000   96.375      1.36707
  95.000   77.870  2.73841   95.000   96.342      1.36661
  96.000   77.819  2.73740   96.000   96.308      1.36614
  97.000   77.769  2.73639   97.000   96.274      1.36567
  98.000   77.718  2.73538   98.000   96.241      1.36521
  99.000   77.668  2.73437   99.000   96.207      1.36474
 100.000   77.617  2.73336  100.000   96.174      1.36428
 101.000   77.567  2.73235  101.000   96.140      1.36381
 102.000   77.517  2.73134  102.000   96.107      1.36334
 103.000   77.467  2.73032  103.000   96.073      1.36288
 104.000   77.417  2.72931  104.000   96.040      1.36241
 105.000   77.367  2.72830  105.000   96.007      1.36194
 106.000   77.317  2.72729  106.000   95.973      1.36148
 107.000   77.267  2.72628  107.000   95.940      1.36101
 108.000   77.218  2.72527  108.000   95.907      1.36054
 109.000   77.168  2.72426  109.000   95.874      1.36008
 110.000   77.118  2.72326  110.000   95.840      1.35961
 111.000   77.069  2.72225  111.000   95.807      1.35914
 112.000   77.019  2.72124  112.000   95.774      1.35868
 113.000   76.970  2.72023  113.000   95.741      1.35821
 114.000   76.921  2.71922  114.000   95.708      1.35774
 115.000   76.871  2.71821  115.000   95.675      1.35728
 116.000   76.822  2.71720  116.000   95.642      1.35681
 117.000   76.773  2.71619  117.000   95.609      1.35634
 118.000   76.724  2.71518  118.000   95.577      1.35588
 119.000   76.675  2.71417  119.000   95.544      1.35541
 120.000   76.626  2.71316  120.000   95.511      1.35494
 121.000   76.578  2.71216  121.000   95.478      1.35447
 122.000   76.529  2.71115  122.000   95.445      1.35401
 123.000   76.480  2.71013  123.000   95.413      1.35354
 124.000   76.432  2.70912  124.000   95.380      1.35307
 125.000   76.383  2.70811  125.000   95.348      1.35261
 126.000   76.335  2.70710  126.000   95.315      1.35214
 127.000   76.286  2.70609  127.000   95.282      1.35167
 128.000   76.238  2.70508  128.000   95.250      1.35121
 129.000   76.190  2.70407  129.000   95.218      1.35074
 130.000   76.142  2.70306  130.000   95.185      1.35027
 131.000   76.094  2.70206  131.000   95.153      1.34981
 132.000   76.046  2.70105  132.000   95.120      1.34934
 133.000   75.998  2.70004  133.000   95.088      1.34887
 134.000   75.950  2.69903  134.000   95.056      1.34841
 135.000   75.902  2.69802  135.000   95.024      1.34794
 136.000   75.854  2.69701  136.000   94.992      1.34747
 137.000   75.806  2.69601  137.000   94.959      1.34701
 138.000   75.759  2.69500  138.000   94.927      1.34654
 139.000   75.711  2.69399  139.000   94.895      1.34607
 140.000   75.664  2.69298  140.000   94.863      1.34561
 141.000   75.616  2.69197  141.000   94.831      1.34514
 142.000   75.569  2.69096  142.000   94.799      1.34467
 143.000   75.522  2.68996  143.000   94.768      1.34421
 144.000   75.474  2.68894  144.000   94.736      1.34374
 145.000   75.427  2.68793  145.000   94.704      1.34327
 146.000   75.380  2.68692  146.000   94.672      1.34281
 147.000   75.333  2.68591  147.000   94.641      1.34234
 148.000   75.286  2.68491  148.000   94.609      1.34187
 149.000   75.239  2.68390  149.000   94.577      1.34141
 150.000   75.192  2.68289  150.000   94.546      1.34094
 151.000   75.146  2.68188  151.000   94.514      1.34047
 152.000   75.099  2.68087  152.000   94.483      1.34000
 153.000   75.052  2.67987  153.000   94.451      1.33954
 154.000   75.006  2.67886  154.000   94.420      1.33907
 155.000   74.959  2.67785  155.000   94.388      1.33860
 156.000   74.913  2.67684  156.000   94.357      1.33814
 157.000   74.866  2.67584  157.000   94.326      1.33767
 158.000   74.820  2.67483  158.000   94.295      1.33720
 159.000   74.774  2.67382  159.000   94.263      1.33674
 160.000   74.728  2.67281  160.000   94.232      1.33627
 161.000   74.681  2.67181  161.000   94.201      1.33580
 162.000   74.635  2.67080  162.000   94.170      1.33534
 163.000   74.589  2.66979  163.000   94.139      1.33487
 164.000   74.543  2.66878  164.000   94.108      1.33440
 165.000   74.498  2.66776  165.000   94.077      1.33394
 166.000   74.452  2.66676  166.000   94.046      1.33347
 167.000   74.406  2.66575  167.000   94.016      1.33300
 168.000   74.360  2.66474  168.000   93.985      1.33254
 169.000   74.315  2.66374  169.000   93.954      1.33207
 170.000   74.269  2.66273  170.000   93.923      1.33160
 171.000   74.223  2.66172  171.000   93.893      1.33114
 172.000   74.178  2.66071  172.000   93.862      1.33067
 173.000   74.133  2.65971  173.000   93.831      1.33020
 174.000   74.087  2.65870  174.000   93.801      1.32974
 175.000   74.042  2.65769  175.000   93.770      1.32927
 176.000   73.997  2.65669  176.000   93.740      1.32881
 177.000   73.952  2.65568  177.000   93.710      1.32834
 178.000   73.906  2.65467  178.000   93.679      1.32787
 179.000   73.861  2.65367  179.000   93.649      1.32741
 180.000   73.816  2.65266  180.000   93.619      1.32694
 181.000   73.771  2.65165  181.000   93.589      1.32647
 182.000   73.727  2.65065  182.000   93.559      1.32601
 183.000   73.682  2.64964  183.000   93.528      1.32554
 184.000   73.637  2.64863  184.000   93.498      1.32507
 185.000   73.592  2.64763  185.000   93.468      1.32460
 186.000   73.548  2.64662  186.000   93.438      1.32413
 187.000   73.503  2.64561  187.000   93.409      1.32367
 188.000   73.458  2.64460  188.000   93.379      1.32320
 189.000   73.414  2.64359  189.000   93.349      1.32273
 190.000   73.369  2.64258  190.000   93.319      1.32227
 191.000   73.325  2.64158  191.000   93.289      1.32180
 192.000   73.281  2.64057  192.000   93.260      1.32134
 193.000   73.236  2.63956  193.000   93.230      1.32087
 194.000   73.192  2.63856  194.000   93.201      1.32040
 195.000   73.148  2.63755  195.000   93.171      1.31994
 196.000   73.104  2.63655  196.000   93.142      1.31947
 197.000   73.060  2.63554  197.000   93.112      1.31900
 198.000   73.016  2.63453  198.000   93.083      1.31854
 199.000   72.972  2.63353  199.000   93.054      1.31807
 200.000   72.928  2.63252  200.000   93.024      1.31760
 201.000   72.884  2.63152  201.000   92.995      1.31714
 202.000   72.841  2.63051  202.000   92.966      1.31667
 203.000   72.797  2.62950  203.000   92.937      1.31620
 204.000   72.753  2.62850  204.000   92.908      1.31574
 205.000   72.710  2.62749  205.000   92.879      1.31527
 206.000   72.666  2.62649  206.000   92.850      1.31480
 207.000   72.622  2.62548  207.000   92.821      1.31434
 208.000   72.579  2.62447  208.000   92.792      1.31387
 209.000   72.536  2.62347  209.000   92.763      1.31340
 210.000   72.492  2.62245  210.000   92.734      1.31294
 211.000   72.449  2.62145  211.000   92.706      1.31247
 212.000   72.406  2.62044  212.000   92.677      1.31200
 213.000   72.362  2.61943  213.000   92.648      1.31154
 214.000   72.319  2.61843  214.000   92.620      1.31107
 215.000   72.276  2.61742  215.000   92.591      1.31060
 216.000   72.233  2.61642  216.000   92.563      1.31014
 217.000   72.190  2.61541  217.000   92.535      1.30967
 218.000   72.147  2.61441  218.000   92.506      1.30920
 219.000   72.104  2.61340  219.000   92.478      1.30873
 220.000   72.061  2.61240  220.000   92.450      1.30827
 221.000   72.019  2.61139  221.000   92.421      1.30780
 222.000   71.976  2.61039  222.000   92.393      1.30733
 223.000   71.933  2.60938  223.000   92.365      1.30687
 224.000   71.890  2.60838  224.000   92.337      1.30640
 225.000   71.848  2.60737  225.000   92.309      1.30593
 226.000   71.805  2.60637  226.000   92.281      1.30547
 227.000   71.763  2.60536  227.000   92.253      1.30500
 228.000   71.720  2.60436  228.000   92.226      1.30453
 229.000   71.678  2.60335  229.000   92.198      1.30407
 230.000   71.636  2.60235  230.000   92.170      1.30360
 231.000   71.593  2.60134  231.000   92.143      1.30313
 232.000   71.551  2.60034  232.000   92.115      1.30267
 233.000   71.509  2.59933  233.000   92.087      1.30220
 234.000   71.467  2.59832  234.000   92.060      1.30173
 235.000   71.424  2.59731  235.000   92.033      1.30127
 236.000   71.382  2.59631  236.000   92.005      1.30080
 237.000   71.340  2.59530  237.000   91.978      1.30033
 238.000   71.298  2.59430  238.000   91.951      1.29987
 239.000   71.256  2.59329  239.000   91.923      1.29940
 240.000   71.215  2.59229  240.000   91.896      1.29894
 241.000   71.173  2.59128  241.000   91.869      1.29847
 242.000   71.131  2.59028  242.000   91.842      1.29800
 243.000   71.089  2.58927  243.000   91.815      1.29754
 244.000   71.047  2.58827  244.000   91.788      1.29707
 245.000   71.006  2.58727  245.000   91.761      1.29660
 246.000   70.964  2.58626  246.000   91.735      1.29614
 247.000   70.923  2.58526  247.000   91.708      1.29567
 248.000   70.881  2.58425  248.000   91.681      1.29520
 249.000   70.840  2.58325  249.000   91.654      1.29474
 250.000   70.798  2.58224  250.000   91.628      1.29427
 251.000   70.757  2.58124  251.000   91.601      1.29380
 252.000   70.715  2.58024  252.000   91.575      1.29334
 253.000   70.674  2.57923  253.000   91.548      1.29287
 254.000   70.633  2.57823  254.000   91.522      1.29240
 255.000   70.592  2.57722  255.000   91.496      1.29193
 256.000   70.550  2.57622  256.000   91.470      1.29147
 257.000   70.509  2.57522  257.000   91.443      1.29100
 258.000   70.468  2.57420  258.000   91.417      1.29053
 259.000   70.427  2.57320  259.000   91.391      1.29007
 260.000   70.386  2.57219  260.000   91.365      1.28960
 261.000   70.345  2.57119  261.000   91.339      1.28913
 262.000   70.304  2.57019  262.000   91.313      1.28867
 263.000   70.263  2.56918  263.000   91.288      1.28820
 264.000   70.222  2.56818  264.000   91.262      1.28773
 265.000   70.182  2.56718  265.000   91.236      1.28727
 266.000   70.141  2.56617  266.000   91.210      1.28680
 267.000   70.100  2.56517  267.000   91.185      1.28633
 268.000   70.059  2.56416  268.000   91.159      1.28587
 269.000   70.019  2.56316  269.000   91.134      1.28540
 270.000   69.978  2.56216  270.000   91.108      1.28493
 271.000   69.938  2.56115  271.000   91.083      1.28447
 272.000   69.897  2.56015  272.000   91.058      1.28400
 273.000   69.857  2.55915  273.000   91.033      1.28353
 274.000   69.816  2.55814  274.000   91.007      1.28307
 275.000   69.776  2.55714  275.000   90.982      1.28260
 276.000   69.735  2.55614  276.000   90.957      1.28213
 277.000   69.695  2.55513  277.000   90.932      1.28167
 278.000   69.655  2.55413  278.000   90.907      1.28120
 279.000   69.615  2.55313  279.000   90.882      1.28073
 280.000   69.574  2.55213  280.000   90.858      1.28027
 281.000   69.534  2.55112  281.000   90.833      1.27980
 282.000   69.494  2.55011  282.000   90.808      1.27933
 283.000   69.454  2.54911  283.000   90.784      1.27887
 284.000   69.414  2.54810  284.000   90.759      1.27840
 285.000   69.374  2.54710  285.000   90.735      1.27794
 286.000   69.334  2.54610  286.000   90.710      1.27747
 287.000   69.294  2.54509  287.000   90.686      1.27700
 288.000   69.254  2.54409  288.000   90.661      1.27654
 289.000   69.214  2.54309  289.000   90.637      1.27607
 290.000   69.175  2.54209  290.000   90.613      1.27560
 291.000   69.135  2.54108  291.000   90.589      1.27514
 292.000   69.095  2.54008  292.000   90.565      1.27467
 293.000   69.055  2.53908  293.000   90.541      1.27420
 294.000   69.016  2.53808  294.000   90.517      1.27374
 295.000   68.976  2.53707  295.000   90.493      1.27326
 296.000   68.936  2.53607  296.000   90.469      1.27280
 297.000   68.897  2.53507  297.000   90.446      1.27233
 298.000   68.857  2.53407  298.000   90.422      1.27186
 299.000   68.818  2.53306  299.000   90.398      1.27140
 300.000   68.778  2.53206  300.000   90.375      1.27093
 301.000   68.739  2.53106  301.000   90.351      1.27047
 302.000   68.700  2.53006  302.000   90.328      1.27000
 303.000   68.660  2.52905  303.000   90.305      1.26953
 304.000   68.621  2.52805  304.000   90.281      1.26907
 305.000   68.582  2.52705  305.000   90.258      1.26860
 306.000   68.542  2.52605  306.000   90.235      1.26813
 307.000   68.503  2.52505  307.000   90.212      1.26767
 308.000   68.464  2.52403  308.000   90.189      1.26720
 309.000   68.425  2.52303  309.000   90.166      1.26673
 310.000   68.386  2.52203  310.000   90.143      1.26627
 311.000   68.347  2.52103  311.000   90.120      1.26580
 312.000   68.308  2.52002  312.000   90.097      1.26533
 313.000   68.269  2.51902  313.000   90.075      1.26487
 314.000   68.230  2.51802  314.000   90.052      1.26440
 315.000   68.191  2.51702  315.000   90.030      1.26393
 316.000   68.152  2.51602  316.000   90.007      1.26347
 317.000   68.113  2.51502  317.000   89.985      1.26300
 318.000   68.074  2.51401  318.000   89.962      1.26253
 319.000   68.035  2.51301  319.000   89.940      1.26207
 320.000   67.997  2.51201  320.000   89.918      1.26160
 321.000   67.958  2.51101  321.000   89.896      1.26113
 322.000   67.919  2.51001  322.000   89.874      1.26067
 323.000   67.880  2.50901  323.000   89.852      1.26020
 324.000   67.842  2.50801  324.000   89.830      1.25973
 325.000   67.803  2.50700  325.000   89.808      1.25927
 326.000   67.765  2.50600  326.000   89.786      1.25880
 327.000   67.726  2.50500  327.000   89.764      1.25833
 328.000   67.688  2.50400  328.000   89.743      1.25787
 329.000   67.649  2.50300  329.000   89.721      1.25740
 330.000   67.611  2.50200  330.000   89.699      1.25694
 331.000   67.572  2.50100  331.000   89.678      1.25647
 332.000   67.534  2.49999  332.000   89.657      1.25600
 333.000   67.495  2.49898  333.000   89.635      1.25554
 334.000   67.457  2.49798  334.000   89.614      1.25507
 335.000   67.419  2.49698  335.000   89.593      1.25460
 336.000   67.381  2.49598  336.000   89.572      1.25414
 337.000   67.342  2.49498  337.000   89.551      1.25367
 338.000   67.304  2.49398  338.000   89.530      1.25320
 339.000   67.266  2.49298  339.000   89.509      1.25274
 340.000   67.228  2.49198  340.000   89.488      1.25226
 341.000   67.190  2.49098  341.000   89.467      1.25180
 342.000   67.152  2.48997  342.000   89.447      1.25133
 343.000   67.113  2.48897  343.000   89.426      1.25086
